;   
;  IMD Data
;   
;  Saved on Fri Jun 05 16:03:37 2020
;   
;  Structure: 
;   
;  [Fe/Au] multilayer, N=1, d=12.00 nm, Gamma=0.583
;      Fe layer (1), z=7.00 nm, sigma[Fe]=1.00 nm, sigma[Au/Fe]=1.00 nm
;      Au layer (2), z=5.00 nm, sigma=1.00 nm
;   
;  f=-1.0000
;   
;  Theta=45.000 deg, Lambda=800.000 nm
;   
;  Depth, z [nm] 	Int 	Int(s) 	Int(p)
      -2.0000000        1.1939309       0.26848659        1.1939309
      -1.9000000        1.1939309       0.26788147        1.1939309
      -1.8000000        1.1939309       0.26727773        1.1939309
      -1.7000000        1.1939309       0.26667538        1.1939309
      -1.6000000        1.1939309       0.26607441        1.1939309
      -1.5000000        1.1939309       0.26547482        1.1939309
      -1.4000000        1.1939309       0.26487662        1.1939309
      -1.3000000        1.1939309       0.26427980        1.1939309
      -1.2000000        1.1939309       0.26368436        1.1939309
      -1.1000000        1.1939309       0.26309032        1.1939309
      -1.0000000        1.1939309       0.26249766        1.1939309
     -0.90000000        1.1939309       0.26190638        1.1939309
     -0.80000000        1.1939309       0.26131650        1.1939309
     -0.70000000        1.1939309       0.26072800        1.1939309
     -0.60000000        1.1939309       0.26014090        1.1939309
     -0.50000000        1.1939309       0.25955518        1.1939309
     -0.40000000        1.1939309       0.25897086        1.1939309
     -0.30000000        1.1939309       0.25838793        1.1939309
     -0.20000000        1.1939309       0.25780639        1.1939309
     -0.10000000        1.1939309       0.25722624        1.1939309
      0.00000000       0.25435793       0.25658588       0.25435793
      0.10000000       0.25370231       0.25600957       0.25370231
      0.20000000       0.25305134       0.25543697       0.25305134
      0.30000000       0.25240497       0.25486805       0.25240497
      0.40000000       0.25176318       0.25430277       0.25176318
      0.50000000       0.25112592       0.25374113       0.25112592
      0.60000000       0.25049318       0.25318309       0.25049318
      0.70000000       0.24986491       0.25262862       0.24986491
      0.80000000       0.24924109       0.25207770       0.24924109
      0.90000000       0.24862169       0.25153031       0.24862169
       1.0000000       0.24800666       0.25098642       0.24800666
       1.1000000       0.24739598       0.25044600       0.24739598
       1.2000000       0.24678963       0.24990903       0.24678963
       1.3000000       0.24618756       0.24937549       0.24618756
       1.4000000       0.24558975       0.24884536       0.24558975
       1.5000000       0.24499617       0.24831860       0.24499617
       1.6000000       0.24440678       0.24779520       0.24440678
       1.7000000       0.24382156       0.24727513       0.24382156
       1.8000000       0.24324049       0.24675837       0.24324049
       1.9000000       0.24266351       0.24624489       0.24266351
       2.0000000       0.24209062       0.24573468       0.24209062
       2.1000000       0.24152178       0.24522770       0.24152178
       2.2000000       0.24095696       0.24472395       0.24095696
       2.3000000       0.24039613       0.24422339       0.24039613
       2.4000000       0.23983927       0.24372601       0.23983927
       2.5000000       0.23928635       0.24323177       0.23928635
       2.6000000       0.23873733       0.24274067       0.23873733
       2.7000000       0.23819219       0.24225268       0.23819219
       2.8000000       0.23765091       0.24176777       0.23765091
       2.9000000       0.23711345       0.24128593       0.23711345
       3.0000000       0.23657979       0.24080714       0.23657979
       3.1000000       0.23604990       0.24033138       0.23604990
       3.2000000       0.23552376       0.23985862       0.23552376
       3.3000000       0.23500133       0.23938884       0.23500133
       3.4000000       0.23448260       0.23892203       0.23448260
       3.5000000       0.23396753       0.23845817       0.23396753
       3.6000000       0.23345611       0.23799723       0.23345611
       3.7000000       0.23294830       0.23753920       0.23294830
       3.8000000       0.23244408       0.23708406       0.23244408
       3.9000000       0.23194342       0.23663179       0.23194342
       4.0000000       0.23144631       0.23618236       0.23144631
       4.1000000       0.23095271       0.23573577       0.23095271
       4.2000000       0.23046259       0.23529199       0.23046259
       4.3000000       0.22997595       0.23485101       0.22997595
       4.4000000       0.22949274       0.23441280       0.22949274
       4.5000000       0.22901295       0.23397736       0.22901295
       4.6000000       0.22853656       0.23354465       0.22853656
       4.7000000       0.22806354       0.23311467       0.22806354
       4.8000000       0.22759386       0.23268740       0.22759386
       4.9000000       0.22712751       0.23226281       0.22712751
       5.0000000       0.22666445       0.23184090       0.22666445
       5.1000000       0.22620468       0.23142165       0.22620468
       5.2000000       0.22574816       0.23100503       0.22574816
       5.3000000       0.22529487       0.23059104       0.22529487
       5.4000000       0.22484479       0.23017966       0.22484479
       5.5000000       0.22439790       0.22977087       0.22439790
       5.6000000       0.22395418       0.22936466       0.22395418
       5.7000000       0.22351360       0.22896101       0.22351360
       5.8000000       0.22307615       0.22855990       0.22307615
       5.9000000       0.22264179       0.22816132       0.22264179
       6.0000000       0.22221052       0.22776526       0.22221052
       6.1000000       0.22178231       0.22737170       0.22178231
       6.2000000       0.22135714       0.22698063       0.22135714
       6.3000000       0.22093499       0.22659203       0.22093499
       6.4000000       0.22051584       0.22620588       0.22051584
       6.5000000       0.22009966       0.22582218       0.22009966
       6.6000000       0.21968645       0.22544091       0.21968645
       6.7000000       0.21927617       0.22506205       0.21927617
       6.8000000       0.21886882       0.22468560       0.21886882
       6.9000000       0.21846436       0.22431153       0.21846436
       7.0000000       0.21779395       0.22394195       0.21779395
       7.0980392       0.21741701       0.22358244       0.21741701
       7.1960784       0.21704792       0.22323043       0.21704792
       7.2941176       0.21668666       0.22288590       0.21668666
       7.3921569       0.21633320       0.22254883       0.21633320
       7.4901961       0.21598752       0.22221918       0.21598752
       7.5882353       0.21564960       0.22189695       0.21564960
       7.6862745       0.21531941       0.22158211       0.21531941
       7.7843137       0.21499693       0.22127463       0.21499693
       7.8823529       0.21468214       0.22097451       0.21468214
       7.9803922       0.21437503       0.22068172       0.21437503
       8.0784314       0.21407556       0.22039624       0.21407556
       8.1764706       0.21378372       0.22011805       0.21378372
       8.2745098       0.21349949       0.21984713       0.21349949
       8.3725490       0.21322285       0.21958347       0.21322285
       8.4705882       0.21295378       0.21932706       0.21295378
       8.5686275       0.21269227       0.21907786       0.21269227
       8.6666667       0.21243829       0.21883587       0.21243829
       8.7647059       0.21219184       0.21860107       0.21219184
       8.8627451       0.21195288       0.21837345       0.21195288
       8.9607843       0.21172142       0.21815299       0.21172142
       9.0588235       0.21149742       0.21793967       0.21149742
       9.1568627       0.21128088       0.21773348       0.21128088
       9.2549020       0.21107178       0.21753442       0.21107178
       9.3529412       0.21087011       0.21734245       0.21087011
       9.4509804       0.21067585       0.21715758       0.21067585
       9.5490196       0.21048899       0.21697979       0.21048899
       9.6470588       0.21030952       0.21680907       0.21030952
       9.7450980       0.21013742       0.21664541       0.21013742
       9.8431373       0.20997269       0.21648879       0.20997269
       9.9411765       0.20981530       0.21633921       0.20981530
       10.039216       0.20966526       0.21619665       0.20966526
       10.137255       0.20952255       0.21606111       0.20952255
       10.235294       0.20938715       0.21593258       0.20938715
       10.333333       0.20925907       0.21581104       0.20925907
       10.431373       0.20913829       0.21569650       0.20913829
       10.529412       0.20902480       0.21558893       0.20902480
       10.627451       0.20891859       0.21548835       0.20891859
       10.725490       0.20881966       0.21539473       0.20881966
       10.823529       0.20872800       0.21530807       0.20872800
       10.921569       0.20864361       0.21522837       0.20864361
       11.019608       0.20856647       0.21515562       0.20856647
       11.117647       0.20849658       0.21508981       0.20849658
       11.215686       0.20843393       0.21503094       0.20843393
       11.313725       0.20837853       0.21497901       0.20837853
       11.411765       0.20833035       0.21493402       0.20833035
       11.509804       0.20828942       0.21489595       0.20828942
       11.607843       0.20825570       0.21486481       0.20825570
       11.705882       0.20822922       0.21484059       0.20822922
       11.803922       0.20820995       0.21482329       0.20820995
       11.901961       0.20819791       0.21481291       0.20819791
